Measurement Date
2021/10/28 18:22:36

Carrier Freq(Hz)
25050000000

Reference Level(dBm),ATT(dB),PreAmp,Offset(dB)
0.00,10.00,OFF,0.00

Average Count
1

Phase Noise Optimization
Auto

Carrier Power(dBm),Freq Error(Hz)
-48.02,-53313.51

Condition
Normal

Offset(Hz),Level(dBc/Hz)
100,-62.38
110,-66.32
120,-70.93
130,-70.55
140,-68.71
150,-68.96
160,-72.91
170,-70.72
180,-69.74
190,-71.68
200,-72.54
210,-75.22
220,-74.81
230,-75.46
240,-76.10
250,-75.54
260,-74.34
270,-73.44
280,-78.11
290,-79.20
300,-78.93
310,-79.34
320,-75.60
330,-78.49
340,-82.56
350,-80.03
360,-81.21
370,-80.18
380,-79.91
390,-83.10
400,-84.19
410,-75.57
420,-79.04
430,-81.88
440,-85.38
450,-84.33
460,-85.12
470,-87.32
480,-87.29
490,-85.43
500,-83.41
510,-83.80
520,-85.17
530,-85.58
540,-81.19
550,-86.28
560,-87.15
570,-83.03
580,-85.68
590,-85.46
600,-87.72
610,-81.85
620,-81.56
630,-88.46
640,-83.06
650,-87.30
660,-87.69
670,-86.99
680,-88.65
690,-88.37
700,-89.29
710,-85.25
720,-73.76
730,-70.37
740,-88.88
750,-89.91
760,-81.37
770,-82.43
780,-86.58
790,-87.50
800,-89.24
810,-87.88
820,-85.24
830,-88.37
840,-89.18
850,-91.46
860,-89.99
870,-91.07
880,-87.72
890,-86.17
900,-84.97
910,-89.00
920,-89.38
930,-87.85
940,-90.15
950,-90.51
960,-91.19
970,-88.84
980,-88.57
990,-87.53
1000,-90.01
1100,-87.60
1200,-90.34
1300,-90.44
1400,-89.99
1500,-87.54
1600,-91.20
1700,-91.01
1800,-89.78
1900,-89.25
2000,-86.29
2100,-88.13
2200,-90.75
2300,-89.12
2400,-90.66
2500,-90.07
2600,-90.21
2700,-86.84
2800,-85.50
2900,-85.67
3000,-89.01
3100,-88.62
3200,-87.11
3300,-87.85
3400,-91.26
3500,-86.93
3600,-87.57
3700,-89.77
3800,-89.85
3900,-91.38
4000,-87.72
4100,-88.40
4200,-90.52
4300,-88.57
4400,-89.89
4500,-90.21
4600,-86.46
4700,-86.57
4800,-89.94
4900,-88.46
5000,-86.84
5100,-87.60
5200,-89.76
5300,-89.27
5400,-90.28
5500,-89.56
5600,-87.81
5700,-88.69
5800,-89.02
5900,-89.49
6000,-90.64
6100,-90.47
6200,-88.24
6300,-90.43
6400,-90.73
6500,-90.37
6600,-87.45
6700,-86.96
6800,-92.37
6900,-89.46
7000,-90.00
7100,-91.70
7200,-92.91
7300,-85.16
7400,-91.70
7500,-91.91
7600,-85.25
7700,-87.00
7800,-92.08
7900,-92.83
8000,-89.21
8100,-90.00
8200,-89.56
8300,-89.42
8400,-89.52
8500,-89.42
8600,-87.13
8700,-86.69
8800,-90.74
8900,-88.78
9000,-88.09
9100,-87.90
9200,-92.00
9300,-89.93
9400,-87.07
9500,-88.92
9600,-89.54
9700,-88.42
9800,-89.86
9900,-89.81
10000,-89.40
11000,-89.02
12000,-89.28
13000,-89.17
14000,-90.52
15000,-88.86
16000,-89.64
17000,-89.06
18000,-88.83
19000,-88.55
20000,-88.46
21000,-89.43
22000,-89.41
23000,-89.10
24000,-88.87
25000,-88.66
26000,-89.90
27000,-88.88
28000,-90.35
29000,-89.27
30000,-89.92
31000,-89.13
32000,-88.22
33000,-88.57
34000,-89.40
35000,-89.28
36000,-88.62
37000,-87.67
38000,-88.31
39000,-89.46
40000,-89.58
41000,-89.04
42000,-89.48
43000,-89.70
44000,-88.95
45000,-88.88
46000,-89.11
47000,-89.17
48000,-90.21
49000,-88.57
50000,-88.52
51000,-90.11
52000,-89.69
53000,-88.54
54000,-89.55
55000,-89.76
56000,-89.12
57000,-89.23
58000,-89.99
59000,-88.64
60000,-89.42
61000,-88.82
62000,-88.31
63000,-89.91
64000,-89.10
65000,-88.97
66000,-89.57
67000,-89.39
68000,-90.18
69000,-88.27
70000,-89.21
71000,-89.45
72000,-89.09
73000,-87.64
74000,-88.34
75000,-89.63
76000,-88.28
77000,-88.88
78000,-88.20
79000,-89.19
80000,-89.98
81000,-88.34
82000,-89.79
83000,-90.42
84000,-89.59
85000,-89.17
86000,-88.20
87000,-88.96
88000,-89.45
89000,-89.05
90000,-87.78
91000,-88.28
92000,-89.06
93000,-88.66
94000,-88.33
95000,-90.22
96000,-90.40
97000,-89.11
98000,-88.53
99000,-89.75
100000,-88.91
110000,-88.95
120000,-88.96
130000,-89.29
140000,-89.20
150000,-89.33
160000,-89.03
170000,-89.15
180000,-88.70
190000,-89.28
200000,-89.17
210000,-88.92
220000,-89.20
230000,-88.88
240000,-89.17
250000,-89.30
260000,-89.01
270000,-89.17
280000,-88.95
290000,-89.07
300000,-89.27
310000,-89.23
320000,-88.92
330000,-89.26
340000,-89.14
350000,-89.34
360000,-89.52
370000,-89.47
380000,-88.94
390000,-88.97
400000,-88.86
410000,-89.28
420000,-89.26
430000,-88.98
440000,-89.06
450000,-89.22
460000,-89.34
470000,-89.23
480000,-89.14
490000,-89.35
500000,-89.15
510000,-89.11
520000,-89.28
530000,-89.15
540000,-88.94
550000,-88.96
560000,-89.14
570000,-89.29
580000,-89.16
590000,-89.48
600000,-89.30
610000,-89.35
620000,-89.18
630000,-89.18
640000,-89.11
650000,-89.02
660000,-89.14
670000,-89.01
680000,-89.10
690000,-89.31
700000,-89.09
710000,-88.92
720000,-89.20
730000,-89.12
740000,-89.27
750000,-89.10
760000,-89.02
770000,-88.87
780000,-89.12
790000,-89.07
800000,-89.29
810000,-89.28
820000,-89.14
830000,-89.05
840000,-89.16
850000,-88.58
860000,-89.17
870000,-89.21
880000,-89.07
890000,-89.36
900000,-89.34
910000,-89.30
920000,-89.69
930000,-89.38
940000,-89.46
950000,-89.16
960000,-89.29
970000,-89.06
980000,-89.28
990000,-89.08
1000000,-89.19
1100000,-88.73
1200000,-88.93
1300000,-88.54
1400000,-90.57
1500000,-91.60
1600000,-88.88
1700000,-87.57
1800000,-89.06
1900000,-88.36
2000000,-89.29
2100000,-89.08
2200000,-88.63
2300000,-89.77
2400000,-91.85
2500000,-89.15
2600000,-88.28
2700000,-88.40
2800000,-90.04
2900000,-88.07
3000000,-88.19
3100000,-88.15
3200000,-91.61
3300000,-88.60
3400000,-90.45
3500000,-88.98
3600000,-88.00
3700000,-87.04
3800000,-90.49
3900000,-88.97
4000000,-85.76
4100000,-89.05
4200000,-92.13
4300000,-88.33
4400000,-87.43
4500000,-89.64
4600000,-88.85
4700000,-90.02
4800000,-90.58
4900000,-91.70
5000000,-88.88
5100000,-90.32
5200000,-89.75
5300000,-89.42
5400000,-88.91
5500000,-87.73
5600000,-88.32
5700000,-89.46
5800000,-88.60
5900000,-88.80
6000000,-88.30
6100000,-87.12
6200000,-87.66
6300000,-90.45
6400000,-89.13
6500000,-88.94
6600000,-91.08
6700000,-89.49
6800000,-87.64
6900000,-90.09
7000000,-88.12
7100000,-91.51
7200000,-88.98
7300000,-90.07
7400000,-89.86
7500000,-89.93
7600000,-86.98
7700000,-90.93
7800000,-89.84
7900000,-91.45
8000000,-91.60
8100000,-90.55
8200000,-91.05
8300000,-89.06
8400000,-89.33
8500000,-87.47
8600000,-90.53
8700000,-90.25
8800000,-88.71
8900000,-87.05
9000000,-89.96
9100000,-91.26
9200000,-91.56
9300000,-88.52
9400000,-88.21
9500000,-89.60
9600000,-88.14
9700000,-90.48
9800000,-89.61
9900000,-91.97
10000000,-89.49
