Measurement Date
2021/10/28 18:48:29

Carrier Freq(Hz)
25050000000

Reference Level(dBm),ATT(dB),PreAmp,Offset(dB)
0.00,10.00,OFF,0.00

Average Count
1

Phase Noise Optimization
Auto

Carrier Power(dBm),Freq Error(Hz)
-47.80,-53186.19

Condition
Normal

Offset(Hz),Level(dBc/Hz)
100,-63.07
110,-64.97
120,-66.31
130,-67.40
140,-70.33
150,-69.15
160,-70.75
170,-69.98
180,-76.05
190,-73.25
200,-74.05
210,-74.58
220,-74.67
230,-76.68
240,-76.33
250,-74.40
260,-75.99
270,-80.03
280,-77.14
290,-78.72
300,-79.87
310,-80.14
320,-80.46
330,-81.48
340,-81.45
350,-80.30
360,-80.61
370,-77.52
380,-80.10
390,-84.62
400,-82.09
410,-78.66
420,-80.73
430,-85.05
440,-85.07
450,-81.99
460,-82.61
470,-84.45
480,-84.96
490,-87.87
500,-86.02
510,-84.65
520,-83.98
530,-88.15
540,-87.28
550,-83.94
560,-85.47
570,-86.29
580,-88.21
590,-84.95
600,-87.32
610,-86.44
620,-84.62
630,-86.92
640,-87.21
650,-87.52
660,-85.15
670,-88.23
680,-88.50
690,-86.41
700,-86.57
710,-85.70
720,-77.86
730,-78.86
740,-81.29
750,-87.94
760,-83.52
770,-91.37
780,-87.68
790,-84.99
800,-87.43
810,-87.42
820,-89.11
830,-88.16
840,-89.24
850,-90.59
860,-86.50
870,-88.25
880,-92.13
890,-74.88
900,-88.23
910,-89.19
920,-88.09
930,-87.29
940,-87.22
950,-90.38
960,-87.93
970,-90.62
980,-92.50
990,-90.78
1000,-92.00
1100,-87.86
1200,-91.39
1300,-91.03
1400,-87.88
1500,-87.13
1600,-86.32
1700,-88.59
1800,-88.61
1900,-92.63
2000,-92.20
2100,-90.18
2200,-91.52
2300,-89.33
2400,-90.22
2500,-87.59
2600,-90.30
2700,-88.03
2800,-88.25
2900,-88.92
3000,-91.07
3100,-87.99
3200,-89.28
3300,-85.23
3400,-87.65
3500,-88.33
3600,-89.09
3700,-90.23
3800,-91.56
3900,-87.27
4000,-88.25
4100,-90.10
4200,-87.96
4300,-90.97
4400,-90.34
4500,-91.87
4600,-87.75
4700,-88.46
4800,-89.23
4900,-89.01
5000,-91.81
5100,-86.99
5200,-86.32
5300,-90.27
5400,-88.42
5500,-89.42
5600,-90.34
5700,-89.99
5800,-89.93
5900,-87.67
6000,-91.25
6100,-92.56
6200,-86.71
6300,-88.47
6400,-88.25
6500,-88.35
6600,-86.73
6700,-88.29
6800,-91.29
6900,-90.11
7000,-88.31
7100,-90.81
7200,-88.08
7300,-86.75
7400,-90.80
7500,-93.06
7600,-89.28
7700,-88.66
7800,-92.05
7900,-89.39
8000,-86.38
8100,-91.05
8200,-90.75
8300,-89.56
8400,-87.73
8500,-90.25
8600,-87.68
8700,-90.35
8800,-89.39
8900,-89.64
9000,-89.68
9100,-91.62
9200,-91.37
9300,-92.48
9400,-95.07
9500,-91.52
9600,-86.70
9700,-91.53
9800,-91.83
9900,-88.69
10000,-88.13
11000,-89.15
12000,-89.31
13000,-89.43
14000,-89.03
15000,-89.21
16000,-88.66
17000,-89.39
18000,-89.68
19000,-89.04
20000,-89.62
21000,-88.93
22000,-89.29
23000,-89.88
24000,-89.31
25000,-89.97
26000,-88.30
27000,-88.88
28000,-90.20
29000,-89.81
30000,-89.72
31000,-89.24
32000,-89.17
33000,-88.70
34000,-88.46
35000,-89.42
36000,-89.15
37000,-88.93
38000,-89.83
39000,-89.73
40000,-89.03
41000,-88.50
42000,-89.36
43000,-89.29
44000,-88.56
45000,-89.74
46000,-89.75
47000,-89.54
48000,-88.84
49000,-88.83
50000,-90.09
51000,-89.77
52000,-89.30
53000,-89.60
54000,-89.49
55000,-89.36
56000,-88.23
57000,-89.82
58000,-88.61
59000,-89.61
60000,-89.86
61000,-89.79
62000,-88.87
63000,-88.88
64000,-88.99
65000,-88.25
66000,-88.59
67000,-90.31
68000,-88.05
69000,-90.58
70000,-88.98
71000,-88.70
72000,-89.55
73000,-89.66
74000,-89.19
75000,-89.34
76000,-89.13
77000,-88.92
78000,-89.74
79000,-89.79
80000,-89.13
81000,-90.85
82000,-90.08
83000,-88.92
84000,-89.46
85000,-89.38
86000,-89.43
87000,-88.29
88000,-89.21
89000,-89.38
90000,-88.70
91000,-88.99
92000,-89.74
93000,-89.00
94000,-89.14
95000,-89.55
96000,-89.82
97000,-89.16
98000,-89.46
99000,-89.55
100000,-89.21
110000,-89.38
120000,-89.09
130000,-89.33
140000,-89.53
150000,-89.41
160000,-89.66
170000,-89.21
180000,-89.64
190000,-88.98
200000,-89.37
210000,-89.39
220000,-89.30
230000,-89.64
240000,-89.05
250000,-89.27
260000,-89.67
270000,-89.31
280000,-89.52
290000,-89.53
300000,-89.32
310000,-89.48
320000,-89.31
330000,-89.38
340000,-89.33
350000,-89.51
360000,-89.27
370000,-89.51
380000,-89.61
390000,-89.51
400000,-89.20
410000,-89.29
420000,-89.39
430000,-89.08
440000,-89.25
450000,-89.40
460000,-89.39
470000,-89.57
480000,-89.56
490000,-89.20
500000,-89.28
510000,-89.36
520000,-89.14
530000,-89.18
540000,-89.48
550000,-89.23
560000,-89.65
570000,-89.69
580000,-89.45
590000,-89.30
600000,-89.35
610000,-89.20
620000,-89.71
630000,-89.27
640000,-89.49
650000,-89.45
660000,-89.38
670000,-89.19
680000,-89.10
690000,-89.48
700000,-89.67
710000,-89.21
720000,-89.40
730000,-89.20
740000,-89.25
750000,-89.37
760000,-89.32
770000,-89.12
780000,-89.27
790000,-89.17
800000,-89.47
810000,-89.33
820000,-89.64
830000,-89.40
840000,-89.33
850000,-89.09
860000,-89.60
870000,-89.04
880000,-89.53
890000,-89.47
900000,-89.35
910000,-89.20
920000,-89.45
930000,-89.53
940000,-89.44
950000,-89.26
960000,-89.13
970000,-89.45
980000,-89.53
990000,-89.42
1000000,-89.54
1100000,-89.23
1200000,-92.03
1300000,-88.32
1400000,-91.91
1500000,-88.18
1600000,-88.67
1700000,-89.82
1800000,-90.54
1900000,-91.02
2000000,-88.70
2100000,-89.44
2200000,-87.76
2300000,-89.78
2400000,-89.11
2500000,-91.99
2600000,-88.42
2700000,-90.23
2800000,-93.33
2900000,-90.40
3000000,-88.05
3100000,-87.73
3200000,-88.56
3300000,-92.28
3400000,-88.14
3500000,-90.24
3600000,-90.52
3700000,-89.66
3800000,-86.73
3900000,-89.51
4000000,-90.94
4100000,-88.24
4200000,-89.06
4300000,-90.54
4400000,-89.17
4500000,-92.42
4600000,-89.36
4700000,-87.82
4800000,-87.96
4900000,-89.28
5000000,-90.86
5100000,-89.98
5200000,-88.13
5300000,-91.61
5400000,-89.96
5500000,-90.30
5600000,-89.97
5700000,-90.85
5800000,-87.87
5900000,-91.29
6000000,-90.16
6100000,-87.74
6200000,-88.63
6300000,-88.76
6400000,-86.08
6500000,-88.04
6600000,-89.96
6700000,-89.76
6800000,-88.44
6900000,-88.14
7000000,-86.37
7100000,-86.01
7200000,-89.07
7300000,-88.02
7400000,-87.16
7500000,-89.41
7600000,-89.24
7700000,-87.44
7800000,-90.39
7900000,-87.70
8000000,-91.28
8100000,-88.89
8200000,-89.34
8300000,-89.57
8400000,-88.41
8500000,-91.73
8600000,-91.47
8700000,-91.76
8800000,-89.78
8900000,-90.09
9000000,-90.11
9100000,-90.58
9200000,-91.54
9300000,-91.18
9400000,-90.22
9500000,-91.14
9600000,-87.66
9700000,-88.04
9800000,-92.20
9900000,-90.37
10000000,-89.76
